 #as colunas representam na ordem:
 # x(t)             y(t)             vx(t)           vy(t)             t
  -90.0000000       80.0000000      -5.00000000       13.0000000       0.00000000    
  -92.0000000       85.1999969      -5.00000000       13.0000000      0.400000006    
  -94.0000000       90.3999939      -5.00000000       13.0000000      0.800000012    
  -96.0000000       95.5999908      -5.00000000       13.0000000       1.20000005    
  -98.0000000       100.799988      -5.00000000      -13.0000000       1.60000002    
  -100.000000       95.5999908       5.00000000      -13.0000000       2.00000000    
  -98.0000000       90.3999939       5.00000000      -13.0000000       2.40000010    
  -96.0000000       85.1999969       5.00000000      -13.0000000       2.80000019    
  -94.0000000       80.0000000       5.00000000      -13.0000000       3.20000029    
  -92.0000000       74.8000031       5.00000000      -13.0000000       3.60000038    
  -90.0000000       69.6000061       5.00000000      -13.0000000       4.00000048    
  -88.0000000       64.4000092       5.00000000      -13.0000000       4.40000057    
  -86.0000000       59.2000084       5.00000000      -13.0000000       4.80000067    
  -84.0000000       54.0000076       5.00000000      -13.0000000       5.20000076    
  -82.0000000       48.8000069       5.00000000      -13.0000000       5.60000086    
  -80.0000000       43.6000061       5.00000000      -13.0000000       6.00000095    
  -78.0000000       38.4000053       5.00000000      -13.0000000       6.40000105    
  -76.0000000       33.2000046       5.00000000      -13.0000000       6.80000114    
  -74.0000000       28.0000038       5.00000000      -13.0000000       7.20000124    
  -72.0000000       22.8000031       5.00000000      -13.0000000       7.60000134    
  -70.0000000       17.6000023       5.00000000      -13.0000000       8.00000095    
  -68.0000000       12.4000015       5.00000000      -13.0000000       8.40000057    
  -66.0000000       7.20000124       5.00000000      -13.0000000       8.80000019    
  -64.0000000       2.00000095       5.00000000      -13.0000000       9.19999981    
  -62.0000000      -3.19999933       5.00000000      -13.0000000       9.59999943    
  -60.0000000      -8.39999962       5.00000000      -13.0000000       9.99999905    
  -58.0000000      -13.6000004       5.00000000      -13.0000000       10.3999987    
  -56.0000000      -18.8000011       5.00000000      -13.0000000       10.7999983    
  -54.0000000      -24.0000019       5.00000000      -13.0000000       11.1999979    
  -52.0000000      -29.2000027       5.00000000      -13.0000000       11.5999975    
  -50.0000000      -34.4000015       5.00000000      -13.0000000       11.9999971    
  -48.0000000      -39.6000023       5.00000000      -13.0000000       12.3999968    
  -46.0000000      -44.8000031       5.00000000      -13.0000000       12.7999964    
  -44.0000000      -50.0000038       5.00000000      -13.0000000       13.1999960    
  -42.0000000      -55.2000046       5.00000000      -13.0000000       13.5999956    
  -40.0000000      -60.4000053       5.00000000      -13.0000000       13.9999952    
  -38.0000000      -65.6000061       5.00000000      -13.0000000       14.3999949    
  -36.0000000      -70.8000031       5.00000000      -13.0000000       14.7999945    
  -34.0000000      -76.0000000       5.00000000      -13.0000000       15.1999941    
  -32.0000000      -81.1999969       5.00000000      -13.0000000       15.5999937    
  -30.0000000      -86.3999939       5.00000000      -13.0000000       15.9999933    
  -28.0000000      -91.5999908       5.00000000      -13.0000000       16.3999939    
  -26.0000000      -96.7999878       5.00000000      -13.0000000       16.7999935    
  -24.0000000      -101.999985       5.00000000       13.0000000       17.1999931    
  -22.0000000      -96.7999878       5.00000000       13.0000000       17.5999928    
  -20.0000000      -91.5999908       5.00000000       13.0000000       17.9999924    
  -18.0000000      -86.3999939       5.00000000       13.0000000       18.3999920    
  -16.0000000      -81.1999969       5.00000000       13.0000000       18.7999916    
  -14.0000000      -76.0000000       5.00000000       13.0000000       19.1999912    
  -12.0000000      -70.8000031       5.00000000       13.0000000       19.5999908    
  -10.0000000      -65.6000061       5.00000000       13.0000000       19.9999905    
  -8.00000000      -60.4000053       5.00000000       13.0000000       20.3999901    
  -6.00000000      -55.2000046       5.00000000       13.0000000       20.7999897    
  -4.00000000      -50.0000038       5.00000000       13.0000000       21.1999893    
  -2.00000000      -44.8000031       5.00000000       13.0000000       21.5999889    
   0.00000000      -39.6000023       5.00000000       13.0000000       21.9999886    
   2.00000000      -34.4000015       5.00000000       13.0000000       22.3999882    
   4.00000000      -29.2000008       5.00000000       13.0000000       22.7999878    
   6.00000000      -24.0000000       5.00000000       13.0000000       23.1999874    
   8.00000000      -18.7999992       5.00000000       13.0000000       23.5999870    
   10.0000000      -13.5999985       5.00000000       13.0000000       23.9999866    
   12.0000000      -8.39999771       5.00000000       13.0000000       24.3999863    
   14.0000000      -3.19999743       5.00000000       13.0000000       24.7999859    
   16.0000000       2.00000286       5.00000000       13.0000000       25.1999855    
   18.0000000       7.20000315       5.00000000       13.0000000       25.5999851    
   20.0000000       12.4000034       5.00000000       13.0000000       25.9999847    
   22.0000000       17.6000042       5.00000000       13.0000000       26.3999844    
   24.0000000       22.8000050       5.00000000       13.0000000       26.7999840    
   26.0000000       28.0000057       5.00000000       13.0000000       27.1999836    
   28.0000000       33.2000046       5.00000000       13.0000000       27.5999832    
   30.0000000       38.4000053       5.00000000       13.0000000       27.9999828    
   32.0000000       43.6000061       5.00000000       13.0000000       28.3999825    
   34.0000000       48.8000069       5.00000000       13.0000000       28.7999821    
   36.0000000       54.0000076       5.00000000       13.0000000       29.1999817    
   38.0000000       59.2000084       5.00000000       13.0000000       29.5999813    
   40.0000000       64.4000092       5.00000000       13.0000000       29.9999809    
   42.0000000       69.6000061       5.00000000       13.0000000       30.3999805    
   44.0000000       74.8000031       5.00000000       13.0000000       30.7999802    
   46.0000000       80.0000000       5.00000000       13.0000000       31.1999798    
   48.0000000       85.1999969       5.00000000       13.0000000       31.5999794    
   50.0000000       90.3999939       5.00000000       13.0000000       31.9999790    
   52.0000000       95.5999908       5.00000000       13.0000000       32.3999786    
   54.0000000       100.799988       5.00000000      -13.0000000       32.7999802    
   56.0000000       95.5999908       5.00000000      -13.0000000       33.1999817    
   58.0000000       90.3999939       5.00000000      -13.0000000       33.5999832    
   60.0000000       85.1999969       5.00000000      -13.0000000       33.9999847    
   62.0000000       80.0000000       5.00000000      -13.0000000       34.3999863    
   64.0000000       74.8000031       5.00000000      -13.0000000       34.7999878    
   66.0000000       69.6000061       5.00000000      -13.0000000       35.1999893    
   68.0000000       64.4000092       5.00000000      -13.0000000       35.5999908    
   70.0000000       59.2000084       5.00000000      -13.0000000       35.9999924    
   72.0000000       54.0000076       5.00000000      -13.0000000       36.3999939    
   74.0000000       48.8000069       5.00000000      -13.0000000       36.7999954    
   76.0000000       43.6000061       5.00000000      -13.0000000       37.1999969    
   78.0000000       38.4000053       5.00000000      -13.0000000       37.5999985    
   80.0000000       33.2000046       5.00000000      -13.0000000       38.0000000    
   82.0000000       28.0000038       5.00000000      -13.0000000       38.4000015    
   84.0000000       22.8000031       5.00000000      -13.0000000       38.8000031    
   86.0000000       17.6000023       5.00000000      -13.0000000       39.2000046    
   88.0000000       12.4000015       5.00000000      -13.0000000       39.6000061    
   90.0000000       7.20000124       5.00000000      -13.0000000       40.0000076    
   92.0000000       2.00000095       5.00000000      -13.0000000       40.4000092    
   94.0000000      -3.19999933       5.00000000      -13.0000000       40.8000107    
   96.0000000      -8.39999962       5.00000000      -13.0000000       41.2000122    
   98.0000000      -13.6000004       5.00000000      -13.0000000       41.6000137    
   100.000000      -18.8000011      -5.00000000      -13.0000000       42.0000153    
   98.0000000      -24.0000019      -5.00000000      -13.0000000       42.4000168    
   96.0000000      -29.2000027      -5.00000000      -13.0000000       42.8000183    
   94.0000000      -34.4000015      -5.00000000      -13.0000000       43.2000198    
   92.0000000      -39.6000023      -5.00000000      -13.0000000       43.6000214    
   90.0000000      -44.8000031      -5.00000000      -13.0000000       44.0000229    
   88.0000000      -50.0000038      -5.00000000      -13.0000000       44.4000244    
   86.0000000      -55.2000046      -5.00000000      -13.0000000       44.8000259    
   84.0000000      -60.4000053      -5.00000000      -13.0000000       45.2000275    
   82.0000000      -65.6000061      -5.00000000      -13.0000000       45.6000290    
   80.0000000      -70.8000031      -5.00000000      -13.0000000       46.0000305    
   78.0000000      -76.0000000      -5.00000000      -13.0000000       46.4000320    
   76.0000000      -81.1999969      -5.00000000      -13.0000000       46.8000336    
   74.0000000      -86.3999939      -5.00000000      -13.0000000       47.2000351    
   72.0000000      -91.5999908      -5.00000000      -13.0000000       47.6000366    
   70.0000000      -96.7999878      -5.00000000      -13.0000000       48.0000381    
   68.0000000      -101.999985      -5.00000000       13.0000000       48.4000397    
   66.0000000      -96.7999878      -5.00000000       13.0000000       48.8000412    
   64.0000000      -91.5999908      -5.00000000       13.0000000       49.2000427    
   62.0000000      -86.3999939      -5.00000000       13.0000000       49.6000443    
   60.0000000      -81.1999969      -5.00000000       13.0000000       50.0000458    
   58.0000000      -76.0000000      -5.00000000       13.0000000       50.4000473    
   56.0000000      -70.8000031      -5.00000000       13.0000000       50.8000488    
   54.0000000      -65.6000061      -5.00000000       13.0000000       51.2000504    
   52.0000000      -60.4000053      -5.00000000       13.0000000       51.6000519    
   50.0000000      -55.2000046      -5.00000000       13.0000000       52.0000534    
   48.0000000      -50.0000038      -5.00000000       13.0000000       52.4000549    
   46.0000000      -44.8000031      -5.00000000       13.0000000       52.8000565    
   44.0000000      -39.6000023      -5.00000000       13.0000000       53.2000580    
   42.0000000      -34.4000015      -5.00000000       13.0000000       53.6000595    
   40.0000000      -29.2000008      -5.00000000       13.0000000       54.0000610    
   38.0000000      -24.0000000      -5.00000000       13.0000000       54.4000626    
   36.0000000      -18.7999992      -5.00000000       13.0000000       54.8000641    
   34.0000000      -13.5999985      -5.00000000       13.0000000       55.2000656    
   32.0000000      -8.39999771      -5.00000000       13.0000000       55.6000671    
   30.0000000      -3.19999743      -5.00000000       13.0000000       56.0000687    
   28.0000000       2.00000286      -5.00000000       13.0000000       56.4000702    
   26.0000000       7.20000315      -5.00000000       13.0000000       56.8000717    
   24.0000000       12.4000034      -5.00000000       13.0000000       57.2000732    
   22.0000000       17.6000042      -5.00000000       13.0000000       57.6000748    
   20.0000000       22.8000050      -5.00000000       13.0000000       58.0000763    
   18.0000000       28.0000057      -5.00000000       13.0000000       58.4000778    
   16.0000000       33.2000046      -5.00000000       13.0000000       58.8000793    
   14.0000000       38.4000053      -5.00000000       13.0000000       59.2000809    
   12.0000000       43.6000061      -5.00000000       13.0000000       59.6000824    
   10.0000000       48.8000069      -5.00000000       13.0000000       60.0000839    
   8.00000000       54.0000076      -5.00000000       13.0000000       60.4000854    
   6.00000000       59.2000084      -5.00000000       13.0000000       60.8000870    
   4.00000000       64.4000092      -5.00000000       13.0000000       61.2000885    
   2.00000000       69.6000061      -5.00000000       13.0000000       61.6000900    
   0.00000000       74.8000031      -5.00000000       13.0000000       62.0000916    
  -2.00000000       80.0000000      -5.00000000       13.0000000       62.4000931    
  -4.00000000       85.1999969      -5.00000000       13.0000000       62.8000946    
  -6.00000000       90.3999939      -5.00000000       13.0000000       63.2000961    
  -8.00000000       95.5999908      -5.00000000       13.0000000       63.6000977    
  -10.0000000       100.799988      -5.00000000      -13.0000000       64.0000992    
  -12.0000000       95.5999908      -5.00000000      -13.0000000       64.4001007    
  -14.0000000       90.3999939      -5.00000000      -13.0000000       64.8001022    
  -16.0000000       85.1999969      -5.00000000      -13.0000000       65.2001038    
  -18.0000000       80.0000000      -5.00000000      -13.0000000       65.6001053    
  -20.0000000       74.8000031      -5.00000000      -13.0000000       66.0001068    
  -22.0000000       69.6000061      -5.00000000      -13.0000000       66.4001083    
  -24.0000000       64.4000092      -5.00000000      -13.0000000       66.8001099    
  -26.0000000       59.2000084      -5.00000000      -13.0000000       67.2001114    
  -28.0000000       54.0000076      -5.00000000      -13.0000000       67.6001129    
  -30.0000000       48.8000069      -5.00000000      -13.0000000       68.0001144    
  -32.0000000       43.6000061      -5.00000000      -13.0000000       68.4001160    
  -34.0000000       38.4000053      -5.00000000      -13.0000000       68.8001175    
  -36.0000000       33.2000046      -5.00000000      -13.0000000       69.2001190    
  -38.0000000       28.0000038      -5.00000000      -13.0000000       69.6001205    
  -40.0000000       22.8000031      -5.00000000      -13.0000000       70.0001221    
  -42.0000000       17.6000023      -5.00000000      -13.0000000       70.4001236    
  -44.0000000       12.4000015      -5.00000000      -13.0000000       70.8001251    
  -46.0000000       7.20000124      -5.00000000      -13.0000000       71.2001266    
  -48.0000000       2.00000095      -5.00000000      -13.0000000       71.6001282    
  -50.0000000      -3.19999933      -5.00000000      -13.0000000       72.0001297    
  -52.0000000      -8.39999962      -5.00000000      -13.0000000       72.4001312    
  -54.0000000      -13.6000004      -5.00000000      -13.0000000       72.8001328    
  -56.0000000      -18.8000011      -5.00000000      -13.0000000       73.2001343    
  -58.0000000      -24.0000019      -5.00000000      -13.0000000       73.6001358    
  -60.0000000      -29.2000027      -5.00000000      -13.0000000       74.0001373    
  -62.0000000      -34.4000015      -5.00000000      -13.0000000       74.4001389    
  -64.0000000      -39.6000023      -5.00000000      -13.0000000       74.8001404    
  -66.0000000      -44.8000031      -5.00000000      -13.0000000       75.2001419    
  -68.0000000      -50.0000038      -5.00000000      -13.0000000       75.6001434    
  -70.0000000      -55.2000046      -5.00000000      -13.0000000       76.0001450    
  -72.0000000      -60.4000053      -5.00000000      -13.0000000       76.4001465    
  -74.0000000      -65.6000061      -5.00000000      -13.0000000       76.8001480    
  -76.0000000      -70.8000031      -5.00000000      -13.0000000       77.2001495    
  -78.0000000      -76.0000000      -5.00000000      -13.0000000       77.6001511    
  -80.0000000      -81.1999969      -5.00000000      -13.0000000       78.0001526    
  -82.0000000      -86.3999939      -5.00000000      -13.0000000       78.4001541    
  -84.0000000      -91.5999908      -5.00000000      -13.0000000       78.8001556    
  -86.0000000      -96.7999878      -5.00000000      -13.0000000       79.2001572    
  -88.0000000      -101.999985      -5.00000000       13.0000000       79.6001587    
  -90.0000000      -96.7999878      -5.00000000       13.0000000       80.0001602    
  -92.0000000      -91.5999908      -5.00000000       13.0000000       80.4001617    
  -94.0000000      -86.3999939      -5.00000000       13.0000000       80.8001633    
  -96.0000000      -81.1999969      -5.00000000       13.0000000       81.2001648    
  -98.0000000      -76.0000000      -5.00000000       13.0000000       81.6001663    
  -100.000000      -70.8000031       5.00000000       13.0000000       82.0001678    
  -98.0000000      -65.6000061       5.00000000       13.0000000       82.4001694    
  -96.0000000      -60.4000053       5.00000000       13.0000000       82.8001709    
  -94.0000000      -55.2000046       5.00000000       13.0000000       83.2001724    
  -92.0000000      -50.0000038       5.00000000       13.0000000       83.6001740    
  -90.0000000      -44.8000031       5.00000000       13.0000000       84.0001755    
  -88.0000000      -39.6000023       5.00000000       13.0000000       84.4001770    
  -86.0000000      -34.4000015       5.00000000       13.0000000       84.8001785    
  -84.0000000      -29.2000008       5.00000000       13.0000000       85.2001801    
  -82.0000000      -24.0000000       5.00000000       13.0000000       85.6001816    
  -80.0000000      -18.7999992       5.00000000       13.0000000       86.0001831    
  -78.0000000      -13.5999985       5.00000000       13.0000000       86.4001846    
  -76.0000000      -8.39999771       5.00000000       13.0000000       86.8001862    
  -74.0000000      -3.19999743       5.00000000       13.0000000       87.2001877    
  -72.0000000       2.00000286       5.00000000       13.0000000       87.6001892    
  -70.0000000       7.20000315       5.00000000       13.0000000       88.0001907    
  -68.0000000       12.4000034       5.00000000       13.0000000       88.4001923    
  -66.0000000       17.6000042       5.00000000       13.0000000       88.8001938    
  -64.0000000       22.8000050       5.00000000       13.0000000       89.2001953    
  -62.0000000       28.0000057       5.00000000       13.0000000       89.6001968    
  -60.0000000       33.2000046       5.00000000       13.0000000       90.0001984    
  -58.0000000       38.4000053       5.00000000       13.0000000       90.4001999    
  -56.0000000       43.6000061       5.00000000       13.0000000       90.8002014    
  -54.0000000       48.8000069       5.00000000       13.0000000       91.2002029    
  -52.0000000       54.0000076       5.00000000       13.0000000       91.6002045    
  -50.0000000       59.2000084       5.00000000       13.0000000       92.0002060    
  -48.0000000       64.4000092       5.00000000       13.0000000       92.4002075    
  -46.0000000       69.6000061       5.00000000       13.0000000       92.8002090    
  -44.0000000       74.8000031       5.00000000       13.0000000       93.2002106    
  -42.0000000       80.0000000       5.00000000       13.0000000       93.6002121    
  -40.0000000       85.1999969       5.00000000       13.0000000       94.0002136    
  -38.0000000       90.3999939       5.00000000       13.0000000       94.4002151    
  -36.0000000       95.5999908       5.00000000       13.0000000       94.8002167    
  -34.0000000       100.799988       5.00000000      -13.0000000       95.2002182    
  -32.0000000       95.5999908       5.00000000      -13.0000000       95.6002197    
  -30.0000000       90.3999939       5.00000000      -13.0000000       96.0002213    
  -28.0000000       85.1999969       5.00000000      -13.0000000       96.4002228    
  -26.0000000       80.0000000       5.00000000      -13.0000000       96.8002243    
  -24.0000000       74.8000031       5.00000000      -13.0000000       97.2002258    
  -22.0000000       69.6000061       5.00000000      -13.0000000       97.6002274    
  -20.0000000       64.4000092       5.00000000      -13.0000000       98.0002289    
  -18.0000000       59.2000084       5.00000000      -13.0000000       98.4002304    
  -16.0000000       54.0000076       5.00000000      -13.0000000       98.8002319    
  -14.0000000       48.8000069       5.00000000      -13.0000000       99.2002335    
  -12.0000000       43.6000061       5.00000000      -13.0000000       99.6002350    
  -10.0000000       38.4000053       5.00000000      -13.0000000       100.000237    
  -8.00000000       33.2000046       5.00000000      -13.0000000       100.400238    
  -6.00000000       28.0000038       5.00000000      -13.0000000       100.800240    
  -4.00000000       22.8000031       5.00000000      -13.0000000       101.200241    
  -2.00000000       17.6000023       5.00000000      -13.0000000       101.600243    
   0.00000000       12.4000015       5.00000000      -13.0000000       102.000244    
   2.00000000       7.20000124       5.00000000      -13.0000000       102.400246    
   4.00000000       2.00000095       5.00000000      -13.0000000       102.800247    
   6.00000000      -3.19999933       5.00000000      -13.0000000       103.200249    
   8.00000000      -8.39999962       5.00000000      -13.0000000       103.600250    
   10.0000000      -13.6000004       5.00000000      -13.0000000       104.000252    
   12.0000000      -18.8000011       5.00000000      -13.0000000       104.400253    
   14.0000000      -24.0000019       5.00000000      -13.0000000       104.800255    
   16.0000000      -29.2000027       5.00000000      -13.0000000       105.200256    
   18.0000000      -34.4000015       5.00000000      -13.0000000       105.600258    
   20.0000000      -39.6000023       5.00000000      -13.0000000       106.000259    
   22.0000000      -44.8000031       5.00000000      -13.0000000       106.400261    
   24.0000000      -50.0000038       5.00000000      -13.0000000       106.800262    
   26.0000000      -55.2000046       5.00000000      -13.0000000       107.200264    
   28.0000000      -60.4000053       5.00000000      -13.0000000       107.600266    
   30.0000000      -65.6000061       5.00000000      -13.0000000       108.000267    
   32.0000000      -70.8000031       5.00000000      -13.0000000       108.400269    
   34.0000000      -76.0000000       5.00000000      -13.0000000       108.800270    
   36.0000000      -81.1999969       5.00000000      -13.0000000       109.200272    
   38.0000000      -86.3999939       5.00000000      -13.0000000       109.600273    
   40.0000000      -91.5999908       5.00000000      -13.0000000       110.000275    
   42.0000000      -96.7999878       5.00000000      -13.0000000       110.400276    
   44.0000000      -101.999985       5.00000000       13.0000000       110.800278    
   46.0000000      -96.7999878       5.00000000       13.0000000       111.200279    
   48.0000000      -91.5999908       5.00000000       13.0000000       111.600281    
   50.0000000      -86.3999939       5.00000000       13.0000000       112.000282    
   52.0000000      -81.1999969       5.00000000       13.0000000       112.400284    
   54.0000000      -76.0000000       5.00000000       13.0000000       112.800285    
   56.0000000      -70.8000031       5.00000000       13.0000000       113.200287    
   58.0000000      -65.6000061       5.00000000       13.0000000       113.600288    
   60.0000000      -60.4000053       5.00000000       13.0000000       114.000290    
   62.0000000      -55.2000046       5.00000000       13.0000000       114.400291    
   64.0000000      -50.0000038       5.00000000       13.0000000       114.800293    
   66.0000000      -44.8000031       5.00000000       13.0000000       115.200294    
   68.0000000      -39.6000023       5.00000000       13.0000000       115.600296    
   70.0000000      -34.4000015       5.00000000       13.0000000       116.000298    
   72.0000000      -29.2000008       5.00000000       13.0000000       116.400299    
   74.0000000      -24.0000000       5.00000000       13.0000000       116.800301    
   76.0000000      -18.7999992       5.00000000       13.0000000       117.200302    
   78.0000000      -13.5999985       5.00000000       13.0000000       117.600304    
   80.0000000      -8.39999771       5.00000000       13.0000000       118.000305    
   82.0000000      -3.19999743       5.00000000       13.0000000       118.400307    
   84.0000000       2.00000286       5.00000000       13.0000000       118.800308    
   86.0000000       7.20000315       5.00000000       13.0000000       119.200310    
   88.0000000       12.4000034       5.00000000       13.0000000       119.600311    
   90.0000000       17.6000042       5.00000000       13.0000000       120.000313    
   92.0000000       22.8000050       5.00000000       13.0000000       120.400314    
   94.0000000       28.0000057       5.00000000       13.0000000       120.800316    
   96.0000000       33.2000046       5.00000000       13.0000000       121.200317    
   98.0000000       38.4000053       5.00000000       13.0000000       121.600319    
   100.000000       43.6000061      -5.00000000       13.0000000       122.000320    
   98.0000000       48.8000069      -5.00000000       13.0000000       122.400322    
   96.0000000       54.0000076      -5.00000000       13.0000000       122.800323    
   94.0000000       59.2000084      -5.00000000       13.0000000       123.200325    
   92.0000000       64.4000092      -5.00000000       13.0000000       123.600327    
   90.0000000       69.6000061      -5.00000000       13.0000000       124.000328    
   88.0000000       74.8000031      -5.00000000       13.0000000       124.400330    
   86.0000000       80.0000000      -5.00000000       13.0000000       124.800331    
   84.0000000       85.1999969      -5.00000000       13.0000000       125.200333    
   82.0000000       90.3999939      -5.00000000       13.0000000       125.600334    
   80.0000000       95.5999908      -5.00000000       13.0000000       126.000336    
   78.0000000       100.799988      -5.00000000      -13.0000000       126.400337    
   76.0000000       95.5999908      -5.00000000      -13.0000000       126.800339    
   74.0000000       90.3999939      -5.00000000      -13.0000000       127.200340    
   72.0000000       85.1999969      -5.00000000      -13.0000000       127.600342    
   70.0000000       80.0000000      -5.00000000      -13.0000000       128.000336    
   68.0000000       74.8000031      -5.00000000      -13.0000000       128.400330    
   66.0000000       69.6000061      -5.00000000      -13.0000000       128.800323    
   64.0000000       64.4000092      -5.00000000      -13.0000000       129.200317    
   62.0000000       59.2000084      -5.00000000      -13.0000000       129.600311    
   60.0000000       54.0000076      -5.00000000      -13.0000000       130.000305    
   58.0000000       48.8000069      -5.00000000      -13.0000000       130.400299    
   56.0000000       43.6000061      -5.00000000      -13.0000000       130.800293    
   54.0000000       38.4000053      -5.00000000      -13.0000000       131.200287    
   52.0000000       33.2000046      -5.00000000      -13.0000000       131.600281    
   50.0000000       28.0000038      -5.00000000      -13.0000000       132.000275    
   48.0000000       22.8000031      -5.00000000      -13.0000000       132.400269    
   46.0000000       17.6000023      -5.00000000      -13.0000000       132.800262    
   44.0000000       12.4000015      -5.00000000      -13.0000000       133.200256    
   42.0000000       7.20000124      -5.00000000      -13.0000000       133.600250    
   40.0000000       2.00000095      -5.00000000      -13.0000000       134.000244    
   38.0000000      -3.19999933      -5.00000000      -13.0000000       134.400238    
   36.0000000      -8.39999962      -5.00000000      -13.0000000       134.800232    
   34.0000000      -13.6000004      -5.00000000      -13.0000000       135.200226    
   32.0000000      -18.8000011      -5.00000000      -13.0000000       135.600220    
   30.0000000      -24.0000019      -5.00000000      -13.0000000       136.000214    
   28.0000000      -29.2000027      -5.00000000      -13.0000000       136.400208    
   26.0000000      -34.4000015      -5.00000000      -13.0000000       136.800201    
   24.0000000      -39.6000023      -5.00000000      -13.0000000       137.200195    
   22.0000000      -44.8000031      -5.00000000      -13.0000000       137.600189    
   20.0000000      -50.0000038      -5.00000000      -13.0000000       138.000183    
   18.0000000      -55.2000046      -5.00000000      -13.0000000       138.400177    
   16.0000000      -60.4000053      -5.00000000      -13.0000000       138.800171    
   14.0000000      -65.6000061      -5.00000000      -13.0000000       139.200165    
   12.0000000      -70.8000031      -5.00000000      -13.0000000       139.600159    
   10.0000000      -76.0000000      -5.00000000      -13.0000000       140.000153    
   8.00000000      -81.1999969      -5.00000000      -13.0000000       140.400146    
   6.00000000      -86.3999939      -5.00000000      -13.0000000       140.800140    
   4.00000000      -91.5999908      -5.00000000      -13.0000000       141.200134    
   2.00000000      -96.7999878      -5.00000000      -13.0000000       141.600128    
   0.00000000      -101.999985      -5.00000000       13.0000000       142.000122    
  -2.00000000      -96.7999878      -5.00000000       13.0000000       142.400116    
  -4.00000000      -91.5999908      -5.00000000       13.0000000       142.800110    
  -6.00000000      -86.3999939      -5.00000000       13.0000000       143.200104    
  -8.00000000      -81.1999969      -5.00000000       13.0000000       143.600098    
  -10.0000000      -76.0000000      -5.00000000       13.0000000       144.000092    
  -12.0000000      -70.8000031      -5.00000000       13.0000000       144.400085    
  -14.0000000      -65.6000061      -5.00000000       13.0000000       144.800079    
  -16.0000000      -60.4000053      -5.00000000       13.0000000       145.200073    
  -18.0000000      -55.2000046      -5.00000000       13.0000000       145.600067    
  -20.0000000      -50.0000038      -5.00000000       13.0000000       146.000061    
  -22.0000000      -44.8000031      -5.00000000       13.0000000       146.400055    
  -24.0000000      -39.6000023      -5.00000000       13.0000000       146.800049    
  -26.0000000      -34.4000015      -5.00000000       13.0000000       147.200043    
  -28.0000000      -29.2000008      -5.00000000       13.0000000       147.600037    
  -30.0000000      -24.0000000      -5.00000000       13.0000000       148.000031    
  -32.0000000      -18.7999992      -5.00000000       13.0000000       148.400024    
  -34.0000000      -13.5999985      -5.00000000       13.0000000       148.800018    
  -36.0000000      -8.39999771      -5.00000000       13.0000000       149.200012    
  -38.0000000      -3.19999743      -5.00000000       13.0000000       149.600006    
  -40.0000000       2.00000286      -5.00000000       13.0000000       150.000000    
  -42.0000000       7.20000315      -5.00000000       13.0000000       150.399994    
  -44.0000000       12.4000034      -5.00000000       13.0000000       150.799988    
  -46.0000000       17.6000042      -5.00000000       13.0000000       151.199982    
  -48.0000000       22.8000050      -5.00000000       13.0000000       151.599976    
  -50.0000000       28.0000057      -5.00000000       13.0000000       151.999969    
  -52.0000000       33.2000046      -5.00000000       13.0000000       152.399963    
  -54.0000000       38.4000053      -5.00000000       13.0000000       152.799957    
  -56.0000000       43.6000061      -5.00000000       13.0000000       153.199951    
  -58.0000000       48.8000069      -5.00000000       13.0000000       153.599945    
  -60.0000000       54.0000076      -5.00000000       13.0000000       153.999939    
  -62.0000000       59.2000084      -5.00000000       13.0000000       154.399933    
  -64.0000000       64.4000092      -5.00000000       13.0000000       154.799927    
  -66.0000000       69.6000061      -5.00000000       13.0000000       155.199921    
  -68.0000000       74.8000031      -5.00000000       13.0000000       155.599915    
  -70.0000000       80.0000000      -5.00000000       13.0000000       155.999908    
  -72.0000000       85.1999969      -5.00000000       13.0000000       156.399902    
  -74.0000000       90.3999939      -5.00000000       13.0000000       156.799896    
  -76.0000000       95.5999908      -5.00000000       13.0000000       157.199890    
  -78.0000000       100.799988      -5.00000000      -13.0000000       157.599884    
  -80.0000000       95.5999908      -5.00000000      -13.0000000       157.999878    
  -82.0000000       90.3999939      -5.00000000      -13.0000000       158.399872    
  -84.0000000       85.1999969      -5.00000000      -13.0000000       158.799866    
  -86.0000000       80.0000000      -5.00000000      -13.0000000       159.199860    
  -88.0000000       74.8000031      -5.00000000      -13.0000000       159.599854    
  -90.0000000       69.6000061      -5.00000000      -13.0000000       159.999847    
  -92.0000000       64.4000092      -5.00000000      -13.0000000       160.399841    
  -94.0000000       59.2000084      -5.00000000      -13.0000000       160.799835    
  -96.0000000       54.0000076      -5.00000000      -13.0000000       161.199829    
  -98.0000000       48.8000069      -5.00000000      -13.0000000       161.599823    
  -100.000000       43.6000061       5.00000000      -13.0000000       161.999817    
  -98.0000000       38.4000053       5.00000000      -13.0000000       162.399811    
  -96.0000000       33.2000046       5.00000000      -13.0000000       162.799805    
  -94.0000000       28.0000038       5.00000000      -13.0000000       163.199799    
  -92.0000000       22.8000031       5.00000000      -13.0000000       163.599792    
  -90.0000000       17.6000023       5.00000000      -13.0000000       163.999786    
  -88.0000000       12.4000015       5.00000000      -13.0000000       164.399780    
  -86.0000000       7.20000124       5.00000000      -13.0000000       164.799774    
  -84.0000000       2.00000095       5.00000000      -13.0000000       165.199768    
  -82.0000000      -3.19999933       5.00000000      -13.0000000       165.599762    
  -80.0000000      -8.39999962       5.00000000      -13.0000000       165.999756    
  -78.0000000      -13.6000004       5.00000000      -13.0000000       166.399750    
  -76.0000000      -18.8000011       5.00000000      -13.0000000       166.799744    
  -74.0000000      -24.0000019       5.00000000      -13.0000000       167.199738    
  -72.0000000      -29.2000027       5.00000000      -13.0000000       167.599731    
  -70.0000000      -34.4000015       5.00000000      -13.0000000       167.999725    
  -68.0000000      -39.6000023       5.00000000      -13.0000000       168.399719    
  -66.0000000      -44.8000031       5.00000000      -13.0000000       168.799713    
  -64.0000000      -50.0000038       5.00000000      -13.0000000       169.199707    
  -62.0000000      -55.2000046       5.00000000      -13.0000000       169.599701    
  -60.0000000      -60.4000053       5.00000000      -13.0000000       169.999695    
  -58.0000000      -65.6000061       5.00000000      -13.0000000       170.399689    
  -56.0000000      -70.8000031       5.00000000      -13.0000000       170.799683    
  -54.0000000      -76.0000000       5.00000000      -13.0000000       171.199677    
  -52.0000000      -81.1999969       5.00000000      -13.0000000       171.599670    
  -50.0000000      -86.3999939       5.00000000      -13.0000000       171.999664    
  -48.0000000      -91.5999908       5.00000000      -13.0000000       172.399658    
  -46.0000000      -96.7999878       5.00000000      -13.0000000       172.799652    
  -44.0000000      -101.999985       5.00000000       13.0000000       173.199646    
  -42.0000000      -96.7999878       5.00000000       13.0000000       173.599640    
  -40.0000000      -91.5999908       5.00000000       13.0000000       173.999634    
  -38.0000000      -86.3999939       5.00000000       13.0000000       174.399628    
  -36.0000000      -81.1999969       5.00000000       13.0000000       174.799622    
  -34.0000000      -76.0000000       5.00000000       13.0000000       175.199615    
  -32.0000000      -70.8000031       5.00000000       13.0000000       175.599609    
  -30.0000000      -65.6000061       5.00000000       13.0000000       175.999603    
  -28.0000000      -60.4000053       5.00000000       13.0000000       176.399597    
  -26.0000000      -55.2000046       5.00000000       13.0000000       176.799591    
  -24.0000000      -50.0000038       5.00000000       13.0000000       177.199585    
  -22.0000000      -44.8000031       5.00000000       13.0000000       177.599579    
  -20.0000000      -39.6000023       5.00000000       13.0000000       177.999573    
  -18.0000000      -34.4000015       5.00000000       13.0000000       178.399567    
  -16.0000000      -29.2000008       5.00000000       13.0000000       178.799561    
  -14.0000000      -24.0000000       5.00000000       13.0000000       179.199554    
  -12.0000000      -18.7999992       5.00000000       13.0000000       179.599548    
  -10.0000000      -13.5999985       5.00000000       13.0000000       179.999542    
  -8.00000000      -8.39999771       5.00000000       13.0000000       180.399536    
  -6.00000000      -3.19999743       5.00000000       13.0000000       180.799530    
  -4.00000000       2.00000286       5.00000000       13.0000000       181.199524    
  -2.00000000       7.20000315       5.00000000       13.0000000       181.599518    
   0.00000000       12.4000034       5.00000000       13.0000000       181.999512    
   2.00000000       17.6000042       5.00000000       13.0000000       182.399506    
   4.00000000       22.8000050       5.00000000       13.0000000       182.799500    
   6.00000000       28.0000057       5.00000000       13.0000000       183.199493    
   8.00000000       33.2000046       5.00000000       13.0000000       183.599487    
   10.0000000       38.4000053       5.00000000       13.0000000       183.999481    
   12.0000000       43.6000061       5.00000000       13.0000000       184.399475    
   14.0000000       48.8000069       5.00000000       13.0000000       184.799469    
   16.0000000       54.0000076       5.00000000       13.0000000       185.199463    
   18.0000000       59.2000084       5.00000000       13.0000000       185.599457    
   20.0000000       64.4000092       5.00000000       13.0000000       185.999451    
   22.0000000       69.6000061       5.00000000       13.0000000       186.399445    
   24.0000000       74.8000031       5.00000000       13.0000000       186.799438    
   26.0000000       80.0000000       5.00000000       13.0000000       187.199432    
   28.0000000       85.1999969       5.00000000       13.0000000       187.599426    
   30.0000000       90.3999939       5.00000000       13.0000000       187.999420    
   32.0000000       95.5999908       5.00000000       13.0000000       188.399414    
   34.0000000       100.799988       5.00000000      -13.0000000       188.799408    
   36.0000000       95.5999908       5.00000000      -13.0000000       189.199402    
   38.0000000       90.3999939       5.00000000      -13.0000000       189.599396    
   40.0000000       85.1999969       5.00000000      -13.0000000       189.999390    
   42.0000000       80.0000000       5.00000000      -13.0000000       190.399384    
   44.0000000       74.8000031       5.00000000      -13.0000000       190.799377    
   46.0000000       69.6000061       5.00000000      -13.0000000       191.199371    
   48.0000000       64.4000092       5.00000000      -13.0000000       191.599365    
   50.0000000       59.2000084       5.00000000      -13.0000000       191.999359    
   52.0000000       54.0000076       5.00000000      -13.0000000       192.399353    
   54.0000000       48.8000069       5.00000000      -13.0000000       192.799347    
   56.0000000       43.6000061       5.00000000      -13.0000000       193.199341    
   58.0000000       38.4000053       5.00000000      -13.0000000       193.599335    
   60.0000000       33.2000046       5.00000000      -13.0000000       193.999329    
   62.0000000       28.0000038       5.00000000      -13.0000000       194.399323    
   64.0000000       22.8000031       5.00000000      -13.0000000       194.799316    
   66.0000000       17.6000023       5.00000000      -13.0000000       195.199310    
   68.0000000       12.4000015       5.00000000      -13.0000000       195.599304    
   70.0000000       7.20000124       5.00000000      -13.0000000       195.999298    
   72.0000000       2.00000095       5.00000000      -13.0000000       196.399292    
   74.0000000      -3.19999933       5.00000000      -13.0000000       196.799286    
   76.0000000      -8.39999962       5.00000000      -13.0000000       197.199280    
   78.0000000      -13.6000004       5.00000000      -13.0000000       197.599274    
   80.0000000      -18.8000011       5.00000000      -13.0000000       197.999268    
   82.0000000      -24.0000019       5.00000000      -13.0000000       198.399261    
   84.0000000      -29.2000027       5.00000000      -13.0000000       198.799255    
   86.0000000      -34.4000015       5.00000000      -13.0000000       199.199249    
   88.0000000      -39.6000023       5.00000000      -13.0000000       199.599243    
   90.0000000      -44.8000031       5.00000000      -13.0000000       199.999237    
   92.0000000      -50.0000038       5.00000000      -13.0000000       200.399231    
   94.0000000      -55.2000046       5.00000000      -13.0000000       200.799225    
   96.0000000      -60.4000053       5.00000000      -13.0000000       201.199219    
   98.0000000      -65.6000061       5.00000000      -13.0000000       201.599213    
   100.000000      -70.8000031      -5.00000000      -13.0000000       201.999207    
   98.0000000      -76.0000000      -5.00000000      -13.0000000       202.399200    
   96.0000000      -81.1999969      -5.00000000      -13.0000000       202.799194    
   94.0000000      -86.3999939      -5.00000000      -13.0000000       203.199188    
   92.0000000      -91.5999908      -5.00000000      -13.0000000       203.599182    
   90.0000000      -96.7999878      -5.00000000      -13.0000000       203.999176    
   88.0000000      -101.999985      -5.00000000       13.0000000       204.399170    
   86.0000000      -96.7999878      -5.00000000       13.0000000       204.799164    
   84.0000000      -91.5999908      -5.00000000       13.0000000       205.199158    
   82.0000000      -86.3999939      -5.00000000       13.0000000       205.599152    
   80.0000000      -81.1999969      -5.00000000       13.0000000       205.999146    
   78.0000000      -76.0000000      -5.00000000       13.0000000       206.399139    
   76.0000000      -70.8000031      -5.00000000       13.0000000       206.799133    
   74.0000000      -65.6000061      -5.00000000       13.0000000       207.199127    
   72.0000000      -60.4000053      -5.00000000       13.0000000       207.599121    
   70.0000000      -55.2000046      -5.00000000       13.0000000       207.999115    
   68.0000000      -50.0000038      -5.00000000       13.0000000       208.399109    
   66.0000000      -44.8000031      -5.00000000       13.0000000       208.799103    
   64.0000000      -39.6000023      -5.00000000       13.0000000       209.199097    
   62.0000000      -34.4000015      -5.00000000       13.0000000       209.599091    
   60.0000000      -29.2000008      -5.00000000       13.0000000       209.999084    
   58.0000000      -24.0000000      -5.00000000       13.0000000       210.399078    
   56.0000000      -18.7999992      -5.00000000       13.0000000       210.799072    
   54.0000000      -13.5999985      -5.00000000       13.0000000       211.199066    
   52.0000000      -8.39999771      -5.00000000       13.0000000       211.599060    
   50.0000000      -3.19999743      -5.00000000       13.0000000       211.999054    
   48.0000000       2.00000286      -5.00000000       13.0000000       212.399048    
   46.0000000       7.20000315      -5.00000000       13.0000000       212.799042    
   44.0000000       12.4000034      -5.00000000       13.0000000       213.199036    
   42.0000000       17.6000042      -5.00000000       13.0000000       213.599030    
   40.0000000       22.8000050      -5.00000000       13.0000000       213.999023    
   38.0000000       28.0000057      -5.00000000       13.0000000       214.399017    
   36.0000000       33.2000046      -5.00000000       13.0000000       214.799011    
   34.0000000       38.4000053      -5.00000000       13.0000000       215.199005    
   32.0000000       43.6000061      -5.00000000       13.0000000       215.598999    
   30.0000000       48.8000069      -5.00000000       13.0000000       215.998993    
   28.0000000       54.0000076      -5.00000000       13.0000000       216.398987    
   26.0000000       59.2000084      -5.00000000       13.0000000       216.798981    
   24.0000000       64.4000092      -5.00000000       13.0000000       217.198975    
   22.0000000       69.6000061      -5.00000000       13.0000000       217.598969    
   20.0000000       74.8000031      -5.00000000       13.0000000       217.998962    
   18.0000000       80.0000000      -5.00000000       13.0000000       218.398956    
   16.0000000       85.1999969      -5.00000000       13.0000000       218.798950    
   14.0000000       90.3999939      -5.00000000       13.0000000       219.198944    
   12.0000000       95.5999908      -5.00000000       13.0000000       219.598938    
   10.0000000       100.799988      -5.00000000      -13.0000000       219.998932    
   8.00000000       95.5999908      -5.00000000      -13.0000000       220.398926    
   6.00000000       90.3999939      -5.00000000      -13.0000000       220.798920    
   4.00000000       85.1999969      -5.00000000      -13.0000000       221.198914    
   2.00000000       80.0000000      -5.00000000      -13.0000000       221.598907    
   0.00000000       74.8000031      -5.00000000      -13.0000000       221.998901    
  -2.00000000       69.6000061      -5.00000000      -13.0000000       222.398895    
  -4.00000000       64.4000092      -5.00000000      -13.0000000       222.798889    
  -6.00000000       59.2000084      -5.00000000      -13.0000000       223.198883    
  -8.00000000       54.0000076      -5.00000000      -13.0000000       223.598877    
  -10.0000000       48.8000069      -5.00000000      -13.0000000       223.998871    
  -12.0000000       43.6000061      -5.00000000      -13.0000000       224.398865    
  -14.0000000       38.4000053      -5.00000000      -13.0000000       224.798859    
  -16.0000000       33.2000046      -5.00000000      -13.0000000       225.198853    
  -18.0000000       28.0000038      -5.00000000      -13.0000000       225.598846    
  -20.0000000       22.8000031      -5.00000000      -13.0000000       225.998840    
  -22.0000000       17.6000023      -5.00000000      -13.0000000       226.398834    
  -24.0000000       12.4000015      -5.00000000      -13.0000000       226.798828    
  -26.0000000       7.20000124      -5.00000000      -13.0000000       227.198822    
  -28.0000000       2.00000095      -5.00000000      -13.0000000       227.598816    
  -30.0000000      -3.19999933      -5.00000000      -13.0000000       227.998810    
  -32.0000000      -8.39999962      -5.00000000      -13.0000000       228.398804    
  -34.0000000      -13.6000004      -5.00000000      -13.0000000       228.798798    
  -36.0000000      -18.8000011      -5.00000000      -13.0000000       229.198792    
  -38.0000000      -24.0000019      -5.00000000      -13.0000000       229.598785    
  -40.0000000      -29.2000027      -5.00000000      -13.0000000       229.998779    
  -42.0000000      -34.4000015      -5.00000000      -13.0000000       230.398773    
  -44.0000000      -39.6000023      -5.00000000      -13.0000000       230.798767    
  -46.0000000      -44.8000031      -5.00000000      -13.0000000       231.198761    
  -48.0000000      -50.0000038      -5.00000000      -13.0000000       231.598755    
  -50.0000000      -55.2000046      -5.00000000      -13.0000000       231.998749    
  -52.0000000      -60.4000053      -5.00000000      -13.0000000       232.398743    
  -54.0000000      -65.6000061      -5.00000000      -13.0000000       232.798737    
  -56.0000000      -70.8000031      -5.00000000      -13.0000000       233.198730    
  -58.0000000      -76.0000000      -5.00000000      -13.0000000       233.598724    
  -60.0000000      -81.1999969      -5.00000000      -13.0000000       233.998718    
  -62.0000000      -86.3999939      -5.00000000      -13.0000000       234.398712    
  -64.0000000      -91.5999908      -5.00000000      -13.0000000       234.798706    
  -66.0000000      -96.7999878      -5.00000000      -13.0000000       235.198700    
  -68.0000000      -101.999985      -5.00000000       13.0000000       235.598694    
  -70.0000000      -96.7999878      -5.00000000       13.0000000       235.998688    
  -72.0000000      -91.5999908      -5.00000000       13.0000000       236.398682    
  -74.0000000      -86.3999939      -5.00000000       13.0000000       236.798676    
  -76.0000000      -81.1999969      -5.00000000       13.0000000       237.198669    
  -78.0000000      -76.0000000      -5.00000000       13.0000000       237.598663    
  -80.0000000      -70.8000031      -5.00000000       13.0000000       237.998657    
  -82.0000000      -65.6000061      -5.00000000       13.0000000       238.398651    
  -84.0000000      -60.4000053      -5.00000000       13.0000000       238.798645    
  -86.0000000      -55.2000046      -5.00000000       13.0000000       239.198639    
  -88.0000000      -50.0000038      -5.00000000       13.0000000       239.598633    
  -90.0000000      -44.8000031      -5.00000000       13.0000000       239.998627    
  -92.0000000      -39.6000023      -5.00000000       13.0000000       240.398621    
  -94.0000000      -34.4000015      -5.00000000       13.0000000       240.798615    
  -96.0000000      -29.2000008      -5.00000000       13.0000000       241.198608    
  -98.0000000      -24.0000000      -5.00000000       13.0000000       241.598602    
  -100.000000      -18.7999992       5.00000000       13.0000000       241.998596    
  -98.0000000      -13.5999985       5.00000000       13.0000000       242.398590    
  -96.0000000      -8.39999771       5.00000000       13.0000000       242.798584    
  -94.0000000      -3.19999743       5.00000000       13.0000000       243.198578    
  -92.0000000       2.00000286       5.00000000       13.0000000       243.598572    
  -90.0000000       7.20000315       5.00000000       13.0000000       243.998566    
  -88.0000000       12.4000034       5.00000000       13.0000000       244.398560    
  -86.0000000       17.6000042       5.00000000       13.0000000       244.798553    
  -84.0000000       22.8000050       5.00000000       13.0000000       245.198547    
  -82.0000000       28.0000057       5.00000000       13.0000000       245.598541    
  -80.0000000       33.2000046       5.00000000       13.0000000       245.998535    
  -78.0000000       38.4000053       5.00000000       13.0000000       246.398529    
  -76.0000000       43.6000061       5.00000000       13.0000000       246.798523    
  -74.0000000       48.8000069       5.00000000       13.0000000       247.198517    
  -72.0000000       54.0000076       5.00000000       13.0000000       247.598511    
  -70.0000000       59.2000084       5.00000000       13.0000000       247.998505    
  -68.0000000       64.4000092       5.00000000       13.0000000       248.398499    
  -66.0000000       69.6000061       5.00000000       13.0000000       248.798492    
  -64.0000000       74.8000031       5.00000000       13.0000000       249.198486    
  -62.0000000       80.0000000       5.00000000       13.0000000       249.598480    
  -60.0000000       85.1999969       5.00000000       13.0000000       249.998474    
  -58.0000000       90.3999939       5.00000000       13.0000000       250.398468    
  -56.0000000       95.5999908       5.00000000       13.0000000       250.798462    
  -54.0000000       100.799988       5.00000000      -13.0000000       251.198456    
  -52.0000000       95.5999908       5.00000000      -13.0000000       251.598450    
  -50.0000000       90.3999939       5.00000000      -13.0000000       251.998444    
  -48.0000000       85.1999969       5.00000000      -13.0000000       252.398438    
  -46.0000000       80.0000000       5.00000000      -13.0000000       252.798431    
  -44.0000000       74.8000031       5.00000000      -13.0000000       253.198425    
  -42.0000000       69.6000061       5.00000000      -13.0000000       253.598419    
  -40.0000000       64.4000092       5.00000000      -13.0000000       253.998413    
  -38.0000000       59.2000084       5.00000000      -13.0000000       254.398407    
  -36.0000000       54.0000076       5.00000000      -13.0000000       254.798401    
  -34.0000000       48.8000069       5.00000000      -13.0000000       255.198395    
  -32.0000000       43.6000061       5.00000000      -13.0000000       255.598389    
  -30.0000000       38.4000053       5.00000000      -13.0000000       255.998383    
  -28.0000000       33.2000046       5.00000000      -13.0000000       256.398376    
  -26.0000000       28.0000038       5.00000000      -13.0000000       256.798370    
  -24.0000000       22.8000031       5.00000000      -13.0000000       257.198364    
  -22.0000000       17.6000023       5.00000000      -13.0000000       257.598358    
  -20.0000000       12.4000015       5.00000000      -13.0000000       257.998352    
  -18.0000000       7.20000124       5.00000000      -13.0000000       258.398346    
  -16.0000000       2.00000095       5.00000000      -13.0000000       258.798340    
  -14.0000000      -3.19999933       5.00000000      -13.0000000       259.198334    
  -12.0000000      -8.39999962       5.00000000      -13.0000000       259.598328    
  -10.0000000      -13.6000004       5.00000000      -13.0000000       259.998322    
  -8.00000000      -18.8000011       5.00000000      -13.0000000       260.398315    
  -6.00000000      -24.0000019       5.00000000      -13.0000000       260.798309    
  -4.00000000      -29.2000027       5.00000000      -13.0000000       261.198303    
  -2.00000000      -34.4000015       5.00000000      -13.0000000       261.598297    
   0.00000000      -39.6000023       5.00000000      -13.0000000       261.998291    
   2.00000000      -44.8000031       5.00000000      -13.0000000       262.398285    
   4.00000000      -50.0000038       5.00000000      -13.0000000       262.798279    
   6.00000000      -55.2000046       5.00000000      -13.0000000       263.198273    
   8.00000000      -60.4000053       5.00000000      -13.0000000       263.598267    
   10.0000000      -65.6000061       5.00000000      -13.0000000       263.998260    
   12.0000000      -70.8000031       5.00000000      -13.0000000       264.398254    
   14.0000000      -76.0000000       5.00000000      -13.0000000       264.798248    
   16.0000000      -81.1999969       5.00000000      -13.0000000       265.198242    
   18.0000000      -86.3999939       5.00000000      -13.0000000       265.598236    
   20.0000000      -91.5999908       5.00000000      -13.0000000       265.998230    
   22.0000000      -96.7999878       5.00000000      -13.0000000       266.398224    
   24.0000000      -101.999985       5.00000000       13.0000000       266.798218    
   26.0000000      -96.7999878       5.00000000       13.0000000       267.198212    
   28.0000000      -91.5999908       5.00000000       13.0000000       267.598206    
   30.0000000      -86.3999939       5.00000000       13.0000000       267.998199    
   32.0000000      -81.1999969       5.00000000       13.0000000       268.398193    
   34.0000000      -76.0000000       5.00000000       13.0000000       268.798187    
   36.0000000      -70.8000031       5.00000000       13.0000000       269.198181    
   38.0000000      -65.6000061       5.00000000       13.0000000       269.598175    
   40.0000000      -60.4000053       5.00000000       13.0000000       269.998169    
   42.0000000      -55.2000046       5.00000000       13.0000000       270.398163    
   44.0000000      -50.0000038       5.00000000       13.0000000       270.798157    
   46.0000000      -44.8000031       5.00000000       13.0000000       271.198151    
   48.0000000      -39.6000023       5.00000000       13.0000000       271.598145    
   50.0000000      -34.4000015       5.00000000       13.0000000       271.998138    
   52.0000000      -29.2000008       5.00000000       13.0000000       272.398132    
   54.0000000      -24.0000000       5.00000000       13.0000000       272.798126    
   56.0000000      -18.7999992       5.00000000       13.0000000       273.198120    
   58.0000000      -13.5999985       5.00000000       13.0000000       273.598114    
   60.0000000      -8.39999771       5.00000000       13.0000000       273.998108    
   62.0000000      -3.19999743       5.00000000       13.0000000       274.398102    
   64.0000000       2.00000286       5.00000000       13.0000000       274.798096    
   66.0000000       7.20000315       5.00000000       13.0000000       275.198090    
   68.0000000       12.4000034       5.00000000       13.0000000       275.598083    
   70.0000000       17.6000042       5.00000000       13.0000000       275.998077    
   72.0000000       22.8000050       5.00000000       13.0000000       276.398071    
   74.0000000       28.0000057       5.00000000       13.0000000       276.798065    
   76.0000000       33.2000046       5.00000000       13.0000000       277.198059    
   78.0000000       38.4000053       5.00000000       13.0000000       277.598053    
   80.0000000       43.6000061       5.00000000       13.0000000       277.998047    
   82.0000000       48.8000069       5.00000000       13.0000000       278.398041    
   84.0000000       54.0000076       5.00000000       13.0000000       278.798035    
   86.0000000       59.2000084       5.00000000       13.0000000       279.198029    
   88.0000000       64.4000092       5.00000000       13.0000000       279.598022    
   90.0000000       69.6000061       5.00000000       13.0000000       279.998016    
   92.0000000       74.8000031       5.00000000       13.0000000       280.398010    
   94.0000000       80.0000000       5.00000000       13.0000000       280.798004    
   96.0000000       85.1999969       5.00000000       13.0000000       281.197998    
   98.0000000       90.3999939       5.00000000       13.0000000       281.597992    
   100.000000       95.5999908      -5.00000000       13.0000000       281.997986    
   98.0000000       100.799988      -5.00000000      -13.0000000       282.397980    
   96.0000000       95.5999908      -5.00000000      -13.0000000       282.797974    
   94.0000000       90.3999939      -5.00000000      -13.0000000       283.197968    
   92.0000000       85.1999969      -5.00000000      -13.0000000       283.597961    
   90.0000000       80.0000000      -5.00000000      -13.0000000       283.997955    
   88.0000000       74.8000031      -5.00000000      -13.0000000       284.397949    
   86.0000000       69.6000061      -5.00000000      -13.0000000       284.797943    
   84.0000000       64.4000092      -5.00000000      -13.0000000       285.197937    
   82.0000000       59.2000084      -5.00000000      -13.0000000       285.597931    
   80.0000000       54.0000076      -5.00000000      -13.0000000       285.997925    
   78.0000000       48.8000069      -5.00000000      -13.0000000       286.397919    
   76.0000000       43.6000061      -5.00000000      -13.0000000       286.797913    
   74.0000000       38.4000053      -5.00000000      -13.0000000       287.197906    
   72.0000000       33.2000046      -5.00000000      -13.0000000       287.597900    
   70.0000000       28.0000038      -5.00000000      -13.0000000       287.997894    
   68.0000000       22.8000031      -5.00000000      -13.0000000       288.397888    
   66.0000000       17.6000023      -5.00000000      -13.0000000       288.797882    
   64.0000000       12.4000015      -5.00000000      -13.0000000       289.197876    
   62.0000000       7.20000124      -5.00000000      -13.0000000       289.597870    
   60.0000000       2.00000095      -5.00000000      -13.0000000       289.997864    
   58.0000000      -3.19999933      -5.00000000      -13.0000000       290.397858    
   56.0000000      -8.39999962      -5.00000000      -13.0000000       290.797852    
   54.0000000      -13.6000004      -5.00000000      -13.0000000       291.197845    
   52.0000000      -18.8000011      -5.00000000      -13.0000000       291.597839    
   50.0000000      -24.0000019      -5.00000000      -13.0000000       291.997833    
   48.0000000      -29.2000027      -5.00000000      -13.0000000       292.397827    
   46.0000000      -34.4000015      -5.00000000      -13.0000000       292.797821    
   44.0000000      -39.6000023      -5.00000000      -13.0000000       293.197815    
   42.0000000      -44.8000031      -5.00000000      -13.0000000       293.597809    
   40.0000000      -50.0000038      -5.00000000      -13.0000000       293.997803    
   38.0000000      -55.2000046      -5.00000000      -13.0000000       294.397797    
   36.0000000      -60.4000053      -5.00000000      -13.0000000       294.797791    
   34.0000000      -65.6000061      -5.00000000      -13.0000000       295.197784    
   32.0000000      -70.8000031      -5.00000000      -13.0000000       295.597778    
   30.0000000      -76.0000000      -5.00000000      -13.0000000       295.997772    
   28.0000000      -81.1999969      -5.00000000      -13.0000000       296.397766    
   26.0000000      -86.3999939      -5.00000000      -13.0000000       296.797760    
   24.0000000      -91.5999908      -5.00000000      -13.0000000       297.197754    
   22.0000000      -96.7999878      -5.00000000      -13.0000000       297.597748    
   20.0000000      -101.999985      -5.00000000       13.0000000       297.997742    
   18.0000000      -96.7999878      -5.00000000       13.0000000       298.397736    
   16.0000000      -91.5999908      -5.00000000       13.0000000       298.797729    
   14.0000000      -86.3999939      -5.00000000       13.0000000       299.197723    
   12.0000000      -81.1999969      -5.00000000       13.0000000       299.597717    
   10.0000000      -76.0000000      -5.00000000       13.0000000       299.997711    
   8.00000000      -70.8000031      -5.00000000       13.0000000       300.397705    
   6.00000000      -65.6000061      -5.00000000       13.0000000       300.797699    
   4.00000000      -60.4000053      -5.00000000       13.0000000       301.197693    
   2.00000000      -55.2000046      -5.00000000       13.0000000       301.597687    
   0.00000000      -50.0000038      -5.00000000       13.0000000       301.997681    
  -2.00000000      -44.8000031      -5.00000000       13.0000000       302.397675    
  -4.00000000      -39.6000023      -5.00000000       13.0000000       302.797668    
  -6.00000000      -34.4000015      -5.00000000       13.0000000       303.197662    
  -8.00000000      -29.2000008      -5.00000000       13.0000000       303.597656    
  -10.0000000      -24.0000000      -5.00000000       13.0000000       303.997650    
  -12.0000000      -18.7999992      -5.00000000       13.0000000       304.397644    
  -14.0000000      -13.5999985      -5.00000000       13.0000000       304.797638    
  -16.0000000      -8.39999771      -5.00000000       13.0000000       305.197632    
  -18.0000000      -3.19999743      -5.00000000       13.0000000       305.597626    
  -20.0000000       2.00000286      -5.00000000       13.0000000       305.997620    
  -22.0000000       7.20000315      -5.00000000       13.0000000       306.397614    
  -24.0000000       12.4000034      -5.00000000       13.0000000       306.797607    
  -26.0000000       17.6000042      -5.00000000       13.0000000       307.197601    
  -28.0000000       22.8000050      -5.00000000       13.0000000       307.597595    
  -30.0000000       28.0000057      -5.00000000       13.0000000       307.997589    
  -32.0000000       33.2000046      -5.00000000       13.0000000       308.397583    
  -34.0000000       38.4000053      -5.00000000       13.0000000       308.797577    
  -36.0000000       43.6000061      -5.00000000       13.0000000       309.197571    
  -38.0000000       48.8000069      -5.00000000       13.0000000       309.597565    
  -40.0000000       54.0000076      -5.00000000       13.0000000       309.997559    
  -42.0000000       59.2000084      -5.00000000       13.0000000       310.397552    
  -44.0000000       64.4000092      -5.00000000       13.0000000       310.797546    
  -46.0000000       69.6000061      -5.00000000       13.0000000       311.197540    
  -48.0000000       74.8000031      -5.00000000       13.0000000       311.597534    
  -50.0000000       80.0000000      -5.00000000       13.0000000       311.997528    
  -52.0000000       85.1999969      -5.00000000       13.0000000       312.397522    
  -54.0000000       90.3999939      -5.00000000       13.0000000       312.797516    
  -56.0000000       95.5999908      -5.00000000       13.0000000       313.197510    
  -58.0000000       100.799988      -5.00000000      -13.0000000       313.597504    
  -60.0000000       95.5999908      -5.00000000      -13.0000000       313.997498    
  -62.0000000       90.3999939      -5.00000000      -13.0000000       314.397491    
  -64.0000000       85.1999969      -5.00000000      -13.0000000       314.797485    
  -66.0000000       80.0000000      -5.00000000      -13.0000000       315.197479    
  -68.0000000       74.8000031      -5.00000000      -13.0000000       315.597473    
  -70.0000000       69.6000061      -5.00000000      -13.0000000       315.997467    
  -72.0000000       64.4000092      -5.00000000      -13.0000000       316.397461    
  -74.0000000       59.2000084      -5.00000000      -13.0000000       316.797455    
  -76.0000000       54.0000076      -5.00000000      -13.0000000       317.197449    
  -78.0000000       48.8000069      -5.00000000      -13.0000000       317.597443    
  -80.0000000       43.6000061      -5.00000000      -13.0000000       317.997437    
  -82.0000000       38.4000053      -5.00000000      -13.0000000       318.397430    
  -84.0000000       33.2000046      -5.00000000      -13.0000000       318.797424    
  -86.0000000       28.0000038      -5.00000000      -13.0000000       319.197418    
  -88.0000000       22.8000031      -5.00000000      -13.0000000       319.597412    
  -90.0000000       17.6000023      -5.00000000      -13.0000000       319.997406    
  -92.0000000       12.4000015      -5.00000000      -13.0000000       320.397400    
  -94.0000000       7.20000124      -5.00000000      -13.0000000       320.797394    
  -96.0000000       2.00000095      -5.00000000      -13.0000000       321.197388    
  -98.0000000      -3.19999933      -5.00000000      -13.0000000       321.597382    
  -100.000000      -8.39999962       5.00000000      -13.0000000       321.997375    
  -98.0000000      -13.6000004       5.00000000      -13.0000000       322.397369    
  -96.0000000      -18.8000011       5.00000000      -13.0000000       322.797363    
  -94.0000000      -24.0000019       5.00000000      -13.0000000       323.197357    
  -92.0000000      -29.2000027       5.00000000      -13.0000000       323.597351    
  -90.0000000      -34.4000015       5.00000000      -13.0000000       323.997345    
  -88.0000000      -39.6000023       5.00000000      -13.0000000       324.397339    
  -86.0000000      -44.8000031       5.00000000      -13.0000000       324.797333    
  -84.0000000      -50.0000038       5.00000000      -13.0000000       325.197327    
  -82.0000000      -55.2000046       5.00000000      -13.0000000       325.597321    
  -80.0000000      -60.4000053       5.00000000      -13.0000000       325.997314    
  -78.0000000      -65.6000061       5.00000000      -13.0000000       326.397308    
  -76.0000000      -70.8000031       5.00000000      -13.0000000       326.797302    
  -74.0000000      -76.0000000       5.00000000      -13.0000000       327.197296    
  -72.0000000      -81.1999969       5.00000000      -13.0000000       327.597290    
  -70.0000000      -86.3999939       5.00000000      -13.0000000       327.997284    
  -68.0000000      -91.5999908       5.00000000      -13.0000000       328.397278    
  -66.0000000      -96.7999878       5.00000000      -13.0000000       328.797272    
  -64.0000000      -101.999985       5.00000000       13.0000000       329.197266    
  -62.0000000      -96.7999878       5.00000000       13.0000000       329.597260    
  -60.0000000      -91.5999908       5.00000000       13.0000000       329.997253    
  -58.0000000      -86.3999939       5.00000000       13.0000000       330.397247    
  -56.0000000      -81.1999969       5.00000000       13.0000000       330.797241    
  -54.0000000      -76.0000000       5.00000000       13.0000000       331.197235    
  -52.0000000      -70.8000031       5.00000000       13.0000000       331.597229    
  -50.0000000      -65.6000061       5.00000000       13.0000000       331.997223    
  -48.0000000      -60.4000053       5.00000000       13.0000000       332.397217    
  -46.0000000      -55.2000046       5.00000000       13.0000000       332.797211    
  -44.0000000      -50.0000038       5.00000000       13.0000000       333.197205    
  -42.0000000      -44.8000031       5.00000000       13.0000000       333.597198    
  -40.0000000      -39.6000023       5.00000000       13.0000000       333.997192    
  -38.0000000      -34.4000015       5.00000000       13.0000000       334.397186    
  -36.0000000      -29.2000008       5.00000000       13.0000000       334.797180    
  -34.0000000      -24.0000000       5.00000000       13.0000000       335.197174    
  -32.0000000      -18.7999992       5.00000000       13.0000000       335.597168    
  -30.0000000      -13.5999985       5.00000000       13.0000000       335.997162    
  -28.0000000      -8.39999771       5.00000000       13.0000000       336.397156    
  -26.0000000      -3.19999743       5.00000000       13.0000000       336.797150    
  -24.0000000       2.00000286       5.00000000       13.0000000       337.197144    
  -22.0000000       7.20000315       5.00000000       13.0000000       337.597137    
  -20.0000000       12.4000034       5.00000000       13.0000000       337.997131    
  -18.0000000       17.6000042       5.00000000       13.0000000       338.397125    
  -16.0000000       22.8000050       5.00000000       13.0000000       338.797119    
  -14.0000000       28.0000057       5.00000000       13.0000000       339.197113    
  -12.0000000       33.2000046       5.00000000       13.0000000       339.597107    
  -10.0000000       38.4000053       5.00000000       13.0000000       339.997101    
  -8.00000000       43.6000061       5.00000000       13.0000000       340.397095    
  -6.00000000       48.8000069       5.00000000       13.0000000       340.797089    
  -4.00000000       54.0000076       5.00000000       13.0000000       341.197083    
  -2.00000000       59.2000084       5.00000000       13.0000000       341.597076    
   0.00000000       64.4000092       5.00000000       13.0000000       341.997070    
   2.00000000       69.6000061       5.00000000       13.0000000       342.397064    
   4.00000000       74.8000031       5.00000000       13.0000000       342.797058    
   6.00000000       80.0000000       5.00000000       13.0000000       343.197052    
   8.00000000       85.1999969       5.00000000       13.0000000       343.597046    
   10.0000000       90.3999939       5.00000000       13.0000000       343.997040    
   12.0000000       95.5999908       5.00000000       13.0000000       344.397034    
   14.0000000       100.799988       5.00000000      -13.0000000       344.797028    
   16.0000000       95.5999908       5.00000000      -13.0000000       345.197021    
   18.0000000       90.3999939       5.00000000      -13.0000000       345.597015    
   20.0000000       85.1999969       5.00000000      -13.0000000       345.997009    
   22.0000000       80.0000000       5.00000000      -13.0000000       346.397003    
   24.0000000       74.8000031       5.00000000      -13.0000000       346.796997    
   26.0000000       69.6000061       5.00000000      -13.0000000       347.196991    
   28.0000000       64.4000092       5.00000000      -13.0000000       347.596985    
   30.0000000       59.2000084       5.00000000      -13.0000000       347.996979    
   32.0000000       54.0000076       5.00000000      -13.0000000       348.396973    
   34.0000000       48.8000069       5.00000000      -13.0000000       348.796967    
   36.0000000       43.6000061       5.00000000      -13.0000000       349.196960    
   38.0000000       38.4000053       5.00000000      -13.0000000       349.596954    
   40.0000000       33.2000046       5.00000000      -13.0000000       349.996948    
   42.0000000       28.0000038       5.00000000      -13.0000000       350.396942    
   44.0000000       22.8000031       5.00000000      -13.0000000       350.796936    
   46.0000000       17.6000023       5.00000000      -13.0000000       351.196930    
   48.0000000       12.4000015       5.00000000      -13.0000000       351.596924    
   50.0000000       7.20000124       5.00000000      -13.0000000       351.996918    
   52.0000000       2.00000095       5.00000000      -13.0000000       352.396912    
   54.0000000      -3.19999933       5.00000000      -13.0000000       352.796906    
   56.0000000      -8.39999962       5.00000000      -13.0000000       353.196899    
   58.0000000      -13.6000004       5.00000000      -13.0000000       353.596893    
   60.0000000      -18.8000011       5.00000000      -13.0000000       353.996887    
   62.0000000      -24.0000019       5.00000000      -13.0000000       354.396881    
   64.0000000      -29.2000027       5.00000000      -13.0000000       354.796875    
   66.0000000      -34.4000015       5.00000000      -13.0000000       355.196869    
   68.0000000      -39.6000023       5.00000000      -13.0000000       355.596863    
   70.0000000      -44.8000031       5.00000000      -13.0000000       355.996857    
   72.0000000      -50.0000038       5.00000000      -13.0000000       356.396851    
   74.0000000      -55.2000046       5.00000000      -13.0000000       356.796844    
   76.0000000      -60.4000053       5.00000000      -13.0000000       357.196838    
   78.0000000      -65.6000061       5.00000000      -13.0000000       357.596832    
   80.0000000      -70.8000031       5.00000000      -13.0000000       357.996826    
   82.0000000      -76.0000000       5.00000000      -13.0000000       358.396820    
   84.0000000      -81.1999969       5.00000000      -13.0000000       358.796814    
   86.0000000      -86.3999939       5.00000000      -13.0000000       359.196808    
   88.0000000      -91.5999908       5.00000000      -13.0000000       359.596802    
   90.0000000      -96.7999878       5.00000000      -13.0000000       359.996796    
   92.0000000      -101.999985       5.00000000       13.0000000       360.396790    
   94.0000000      -96.7999878       5.00000000       13.0000000       360.796783    
   96.0000000      -91.5999908       5.00000000       13.0000000       361.196777    
   98.0000000      -86.3999939       5.00000000       13.0000000       361.596771    
   100.000000      -81.1999969      -5.00000000       13.0000000       361.996765    
   98.0000000      -76.0000000      -5.00000000       13.0000000       362.396759    
   96.0000000      -70.8000031      -5.00000000       13.0000000       362.796753    
   94.0000000      -65.6000061      -5.00000000       13.0000000       363.196747    
   92.0000000      -60.4000053      -5.00000000       13.0000000       363.596741    
   90.0000000      -55.2000046      -5.00000000       13.0000000       363.996735    
   88.0000000      -50.0000038      -5.00000000       13.0000000       364.396729    
   86.0000000      -44.8000031      -5.00000000       13.0000000       364.796722    
   84.0000000      -39.6000023      -5.00000000       13.0000000       365.196716    
   82.0000000      -34.4000015      -5.00000000       13.0000000       365.596710    
   80.0000000      -29.2000008      -5.00000000       13.0000000       365.996704    
   78.0000000      -24.0000000      -5.00000000       13.0000000       366.396698    
   76.0000000      -18.7999992      -5.00000000       13.0000000       366.796692    
   74.0000000      -13.5999985      -5.00000000       13.0000000       367.196686    
   72.0000000      -8.39999771      -5.00000000       13.0000000       367.596680    
   70.0000000      -3.19999743      -5.00000000       13.0000000       367.996674    
   68.0000000       2.00000286      -5.00000000       13.0000000       368.396667    
   66.0000000       7.20000315      -5.00000000       13.0000000       368.796661    
   64.0000000       12.4000034      -5.00000000       13.0000000       369.196655    
   62.0000000       17.6000042      -5.00000000       13.0000000       369.596649    
   60.0000000       22.8000050      -5.00000000       13.0000000       369.996643    
   58.0000000       28.0000057      -5.00000000       13.0000000       370.396637    
   56.0000000       33.2000046      -5.00000000       13.0000000       370.796631    
   54.0000000       38.4000053      -5.00000000       13.0000000       371.196625    
   52.0000000       43.6000061      -5.00000000       13.0000000       371.596619    
   50.0000000       48.8000069      -5.00000000       13.0000000       371.996613    
   48.0000000       54.0000076      -5.00000000       13.0000000       372.396606    
   46.0000000       59.2000084      -5.00000000       13.0000000       372.796600    
   44.0000000       64.4000092      -5.00000000       13.0000000       373.196594    
   42.0000000       69.6000061      -5.00000000       13.0000000       373.596588    
   40.0000000       74.8000031      -5.00000000       13.0000000       373.996582    
   38.0000000       80.0000000      -5.00000000       13.0000000       374.396576    
   36.0000000       85.1999969      -5.00000000       13.0000000       374.796570    
   34.0000000       90.3999939      -5.00000000       13.0000000       375.196564    
   32.0000000       95.5999908      -5.00000000       13.0000000       375.596558    
   30.0000000       100.799988      -5.00000000      -13.0000000       375.996552    
   28.0000000       95.5999908      -5.00000000      -13.0000000       376.396545    
   26.0000000       90.3999939      -5.00000000      -13.0000000       376.796539    
   24.0000000       85.1999969      -5.00000000      -13.0000000       377.196533    
   22.0000000       80.0000000      -5.00000000      -13.0000000       377.596527    
   20.0000000       74.8000031      -5.00000000      -13.0000000       377.996521    
   18.0000000       69.6000061      -5.00000000      -13.0000000       378.396515    
   16.0000000       64.4000092      -5.00000000      -13.0000000       378.796509    
   14.0000000       59.2000084      -5.00000000      -13.0000000       379.196503    
   12.0000000       54.0000076      -5.00000000      -13.0000000       379.596497    
   10.0000000       48.8000069      -5.00000000      -13.0000000       379.996490    
   8.00000000       43.6000061      -5.00000000      -13.0000000       380.396484    
   6.00000000       38.4000053      -5.00000000      -13.0000000       380.796478    
   4.00000000       33.2000046      -5.00000000      -13.0000000       381.196472    
   2.00000000       28.0000038      -5.00000000      -13.0000000       381.596466    
   0.00000000       22.8000031      -5.00000000      -13.0000000       381.996460    
  -2.00000000       17.6000023      -5.00000000      -13.0000000       382.396454    
  -4.00000000       12.4000015      -5.00000000      -13.0000000       382.796448    
  -6.00000000       7.20000124      -5.00000000      -13.0000000       383.196442    
  -8.00000000       2.00000095      -5.00000000      -13.0000000       383.596436    
  -10.0000000      -3.19999933      -5.00000000      -13.0000000       383.996429    
  -12.0000000      -8.39999962      -5.00000000      -13.0000000       384.396423    
  -14.0000000      -13.6000004      -5.00000000      -13.0000000       384.796417    
  -16.0000000      -18.8000011      -5.00000000      -13.0000000       385.196411    
  -18.0000000      -24.0000019      -5.00000000      -13.0000000       385.596405    
  -20.0000000      -29.2000027      -5.00000000      -13.0000000       385.996399    
  -22.0000000      -34.4000015      -5.00000000      -13.0000000       386.396393    
  -24.0000000      -39.6000023      -5.00000000      -13.0000000       386.796387    
  -26.0000000      -44.8000031      -5.00000000      -13.0000000       387.196381    
  -28.0000000      -50.0000038      -5.00000000      -13.0000000       387.596375    
  -30.0000000      -55.2000046      -5.00000000      -13.0000000       387.996368    
  -32.0000000      -60.4000053      -5.00000000      -13.0000000       388.396362    
  -34.0000000      -65.6000061      -5.00000000      -13.0000000       388.796356    
  -36.0000000      -70.8000031      -5.00000000      -13.0000000       389.196350    
  -38.0000000      -76.0000000      -5.00000000      -13.0000000       389.596344    
  -40.0000000      -81.1999969      -5.00000000      -13.0000000       389.996338    
  -42.0000000      -86.3999939      -5.00000000      -13.0000000       390.396332    
  -44.0000000      -91.5999908      -5.00000000      -13.0000000       390.796326    
  -46.0000000      -96.7999878      -5.00000000      -13.0000000       391.196320    
  -48.0000000      -101.999985      -5.00000000       13.0000000       391.596313    
  -50.0000000      -96.7999878      -5.00000000       13.0000000       391.996307    
  -52.0000000      -91.5999908      -5.00000000       13.0000000       392.396301    
  -54.0000000      -86.3999939      -5.00000000       13.0000000       392.796295    
  -56.0000000      -81.1999969      -5.00000000       13.0000000       393.196289    
  -58.0000000      -76.0000000      -5.00000000       13.0000000       393.596283    
  -60.0000000      -70.8000031      -5.00000000       13.0000000       393.996277    
  -62.0000000      -65.6000061      -5.00000000       13.0000000       394.396271    
  -64.0000000      -60.4000053      -5.00000000       13.0000000       394.796265    
  -66.0000000      -55.2000046      -5.00000000       13.0000000       395.196259    
  -68.0000000      -50.0000038      -5.00000000       13.0000000       395.596252    
  -70.0000000      -44.8000031      -5.00000000       13.0000000       395.996246    
  -72.0000000      -39.6000023      -5.00000000       13.0000000       396.396240    
  -74.0000000      -34.4000015      -5.00000000       13.0000000       396.796234    
  -76.0000000      -29.2000008      -5.00000000       13.0000000       397.196228    
  -78.0000000      -24.0000000      -5.00000000       13.0000000       397.596222    
  -80.0000000      -18.7999992      -5.00000000       13.0000000       397.996216    
  -82.0000000      -13.5999985      -5.00000000       13.0000000       398.396210    
  -84.0000000      -8.39999771      -5.00000000       13.0000000       398.796204    
  -86.0000000      -3.19999743      -5.00000000       13.0000000       399.196198    
  -88.0000000       2.00000286      -5.00000000       13.0000000       399.596191    
  -90.0000000       7.20000315      -5.00000000       13.0000000       399.996185    
  -92.0000000       12.4000034      -5.00000000       13.0000000       400.396179    
